mesurement	 time stamp	N1S0	N3P0	 Ntot	ex.rate	time stamp 2		# AOM frequency A	# AOM frequency B	# Zeeman shift (Hz)	# fHgAOM (Hz)	# drift rate A	# drift rate B
18.000	3.580	18.000	3514341428.345	1566.567	369.408	1935.975	0.191	0.321	-0.432	-0.159	-0.080
19.000	3.127	19.000	3514341429.845	1290.754	833.438	2124.192	0.392	0.321	-0.432	-0.159	-0.080
36.000	-0.194	36.000	3514341455.344	1748.385	415.584	2163.969	0.192	0.064	1.119	1.104	-0.863
37.000	-1.386	37.000	3514341456.844	1410.989	632.849	2043.837	0.310	0.064	1.119	1.104	-0.863
38.000	-1.386	38.000	3514341458.345	1438.384	667.974	2106.358	0.317	0.064	1.119	1.104	-0.258
39.000	-1.054	39.000	3514341459.845	1235.964	699.449	1935.413	0.361	0.064	1.119	1.104	-0.258
40.000	-1.054	40.000	3514341461.344	1503.652	443.902	1947.554	0.228	1.601	1.119	1.104	-0.258
41.000	0.530	41.000	3514341462.845	1436.075	597.625	2033.700	0.294	1.601	1.119	1.104	-0.258
42.000	0.530	42.000	3514341464.346	1632.723	316.030	1948.752	0.162	1.601	-1.284	1.104	-0.258
43.000	-0.918	43.000	3514341465.845	1629.126	422.590	2051.716	0.206	1.601	-1.284	1.104	-0.258
44.000	-0.918	44.000	3514341467.344	1491.664	689.582	2181.246	0.316	1.601	-1.284	0.066	-0.258
45.000	-1.078	45.000	3514341468.846	1483.894	666.790	2150.684	0.310	1.601	-1.284	0.066	-0.258
46.000	-1.078	46.000	3514341470.344	1985.170	271.531	2256.701	0.120	1.601	-1.284	0.066	-1.175
47.000	0.233	47.000	3514341471.845	1486.824	563.387	2050.212	0.275	1.601	-1.284	0.066	-1.175
48.000	0.233	48.000	3514341473.345	1489.888	606.208	2096.096	0.289	-1.159	-1.284	0.066	-1.175
49.000	-1.003	49.000	3514341474.845	1563.059	470.246	2033.305	0.231	-1.159	-1.284	0.066	-1.175
50.000	-1.003	50.000	3514341476.345	1418.315	794.563	2212.878	0.359	-1.159	0.970	0.066	-1.175
51.000	-0.156	51.000	3514341477.844	1732.268	462.254	2194.521	0.211	-1.159	0.970	0.066	-1.175
52.000	-0.156	52.000	3514341479.345	1700.788	561.611	2262.399	0.248	-1.159	0.970	-1.669	-1.175
53.000	1.497	53.000	3514341480.846	1810.989	404.534	2215.523	0.183	-1.159	0.970	-1.669	-1.175
54.000	1.497	54.000	3514341482.345	1153.113	761.115	1914.229	0.398	-1.159	0.970	-1.669	0.127
55.000	1.507	55.000	3514341483.845	1854.234	233.051	2087.285	0.112	-1.159	0.970	-1.669	0.127
56.000	1.507	56.000	3514341485.345	1144.544	684.649	1829.193	0.374	1.125	0.970	-1.669	0.127
57.000	2.608	57.000	3514341486.845	1611.322	304.584	1915.906	0.159	1.125	0.970	-1.669	0.127
58.000	2.608	58.000	3514341488.344	1610.700	422.195	2032.896	0.208	1.125	0.331	-1.669	0.127
59.000	2.826	59.000	3514341489.845	1742.435	417.459	2159.894	0.193	1.125	0.331	-1.669	0.127
60.000	2.826	60.000	3514341491.344	1574.958	526.190	2101.148	0.250	1.125	0.331	1.892	0.127
61.000	0.822	61.000	3514341492.845	1913.953	357.568	2271.521	0.157	1.125	0.331	1.892	0.127
62.000	0.822	62.000	3514341494.345	1735.731	410.158	2145.888	0.191	1.125	0.331	1.892	2.311
63.000	-1.460	63.000	3514341495.846	1277.611	593.481	1871.092	0.317	1.125	0.331	1.892	2.311
64.000	-1.460	64.000	3514341497.346	1713.353	387.267	2100.620	0.184	0.429	0.331	1.892	2.311
65.000	-1.036	65.000	3514341498.846	1458.453	745.427	2203.880	0.338	0.429	0.331	1.892	2.311
66.000	-1.036	66.000	3514341500.344	1831.946	271.038	2102.983	0.129	0.429	0.503	1.892	2.311
67.000	-0.626	67.000	3514341501.846	1677.478	482.875	2160.353	0.224	0.429	0.503	1.892	2.311
68.000	-0.626	68.000	3514341503.346	1550.938	500.438	2051.376	0.244	0.429	0.503	0.297	2.311
69.000	-1.055	69.000	3514341504.845	1770.674	539.707	2310.381	0.234	0.429	0.503	0.297	2.311
70.000	-1.055	70.000	3514341506.346	1375.824	750.361	2126.185	0.353	0.429	0.503	0.297	-1.169
71.000	0.202	71.000	3514341507.845	1873.060	439.955	2313.015	0.190	0.429	0.503	0.297	-1.169
72.000	0.202	72.000	3514341509.344	1517.904	436.008	1953.912	0.223	-1.842	0.503	0.297	-1.169
73.000	-1.736	73.000	3514341510.845	2048.041	48.347	2096.387	0.023	-1.842	0.503	0.297	-1.169
74.000	-1.736	74.000	3514341512.345	1133.888	775.422	1909.310	0.406	-1.842	0.180	0.297	-1.169
75.000	-1.645	75.000	3514341513.846	1734.133	552.830	2286.962	0.242	-1.842	0.180	0.297	-1.169
76.000	-1.645	76.000	3514341515.346	1313.486	910.694	2224.181	0.409	-1.842	0.180	1.050	-1.169
77.000	-2.886	77.000	3514341516.846	1364.724	927.961	2292.685	0.405	-1.842	0.180	1.050	-1.169
78.000	-2.886	78.000	3514341518.346	1676.412	662.646	2339.058	0.283	-1.842	0.180	1.050	0.290
79.000	-3.098	79.000	3514341519.846	2062.560	230.387	2292.947	0.100	-1.842	0.180	1.050	0.290
80.000	-3.098	80.000	3514341521.345	1273.793	817.849	2091.642	0.391	3.371	0.180	1.050	0.290
81.000	0.341	81.000	3514341522.845	1476.967	602.361	2079.328	0.290	3.371	0.180	1.050	0.290
82.000	0.341	82.000	3514341524.345	1794.339	306.755	2101.094	0.146	3.371	1.476	1.050	0.290
83.000	1.797	83.000	3514341525.845	1559.108	689.089	2248.196	0.307	3.371	1.476	1.050	0.290
84.000	1.797	84.000	3514341527.345	1815.118	584.601	2399.719	0.244	3.371	1.476	-1.069	0.290
85.000	2.719	85.000	3514341528.845	1553.691	804.430	2358.121	0.341	3.371	1.476	-1.069	0.290
86.000	2.719	86.000	3514341530.345	1590.765	850.606	2441.371	0.348	3.371	1.476	-1.069	2.557
87.000	0.116	87.000	3514341531.846	1399.800	594.862	1994.662	0.298	3.371	1.476	-1.069	2.557
88.000	0.116	88.000	3514341533.344	1998.934	295.902	2294.836	0.129	-1.264	1.476	-1.069	2.557
89.000	-1.140	89.000	3514341534.846	1746.831	455.742	2202.573	0.207	-1.264	1.476	-1.069	2.557
90.000	-1.140	90.000	3514341536.346	1620.868	612.721	2233.588	0.274	-1.264	-0.553	-1.069	2.557
91.000	-1.742	91.000	3514341537.845	1836.918	305.176	2142.095	0.142	-1.264	-0.553	-1.069	2.557
92.000	-1.742	92.000	3514341539.347	1537.485	1008.374	2545.859	0.396	-1.264	-0.553	0.064	2.557
93.000	-1.964	93.000	3514341540.845	1736.530	531.321	2267.851	0.234	-1.264	-0.553	0.064	2.557
94.000	-1.964	94.000	3514341542.345	1337.462	642.321	1979.783	0.324	-1.264	-0.553	0.064	-1.490
95.000	-0.448	95.000	3514341543.845	1743.856	283.075	2026.931	0.140	-1.264	-0.553	0.064	-1.490
96.000	-0.448	96.000	3514341545.345	1802.065	378.486	2180.550	0.174	0.593	-0.553	0.064	-1.490
97.000	0.183	97.000	3514341546.846	1535.886	594.073	2129.959	0.279	0.593	-0.553	0.064	-1.490
98.000	0.183	98.000	3514341548.346	1337.685	416.966	1754.650	0.238	0.593	2.232	0.064	-1.490
99.000	2.476	99.000	3514341549.846	1141.525	713.854	1855.379	0.385	0.593	2.232	0.064	-1.490
100.000	2.476	100.000	3514341551.346	1838.339	455.248	2293.588	0.198	0.593	2.232	0.793	-1.490
101.000	1.477	101.000	3514341552.846	1428.704	515.534	1944.238	0.265	0.593	2.232	0.793	-1.490
102.000	1.477	102.000	3514341554.346	1775.691	678.630	2454.321	0.277	0.593	2.232	0.793	0.298
103.000	1.192	103.000	3514341555.846	1498.546	432.160	1930.706	0.224	0.593	2.232	0.793	0.298
104.000	1.192	104.000	3514341557.344	1359.485	676.163	2035.648	0.332	-0.363	2.232	0.793	0.298
105.000	0.850	105.000	3514341558.845	1670.552	377.104	2047.656	0.184	-0.363	2.232	0.793	0.298
106.000	0.850	106.000	3514341560.346	1528.161	657.022	2185.183	0.301	-0.363	-1.639	0.793	0.298
107.000	-0.807	107.000	3514341561.846	1726.274	595.454	2321.728	0.256	-0.363	-1.639	0.793	0.298
108.000	-0.807	108.000	3514341563.345	1667.710	744.539	2412.250	0.309	-0.363	-1.639	0.100	0.298
109.000	-1.127	109.000	3514341564.845	1380.841	908.129	2288.970	0.397	-0.363	-1.639	0.100	0.298
110.000	-1.127	110.000	3514341566.346	1831.013	525.499	2356.513	0.223	-0.363	-1.639	0.100	0.953
111.000	-2.115	111.000	3514341567.845	1367.965	826.433	2194.398	0.377	-0.363	-1.639	0.100	0.953
112.000	-2.115	112.000	3514341569.345	1950.938	457.320	2408.258	0.190	1.025	-1.639	0.100	0.953
113.000	-1.016	113.000	3514341570.846	1319.347	423.675	1743.022	0.243	1.025	-1.639	0.100	0.953
114.000	-1.016	114.000	3514341572.347	1874.614	322.246	2196.860	0.147	1.025	0.459	0.100	0.953
115.000	-0.553	115.000	3514341573.846	1561.816	500.043	2061.859	0.243	1.025	0.459	0.100	0.953
116.000	-0.553	116.000	3514341575.345	1754.201	441.040	2195.241	0.201	1.025	0.459	-1.529	0.953
117.000	0.821	117.000	3514341576.846	1771.651	450.414	2222.064	0.203	1.025	0.459	-1.529	0.953
118.000	0.821	118.000	3514341578.345	1626.063	387.563	2013.626	0.192	1.025	0.459	-1.529	-1.643
119.000	2.511	119.000	3514341579.847	1726.007	252.587	1978.594	0.128	1.025	0.459	-1.529	-1.643
120.000	2.511	120.000	3514341581.344	1683.472	316.622	2000.094	0.158	-0.848	0.459	-1.529	-1.643
121.000	1.698	121.000	3514341582.845	1674.414	400.686	2075.100	0.193	-0.848	0.459	-1.529	-1.643
122.000	1.698	122.000	3514341584.346	1690.132	797.129	2487.261	0.320	-0.848	-0.366	-1.529	-1.643
123.000	1.317	123.000	3514341585.847	1662.693	559.539	2222.232	0.252	-0.848	-0.366	-1.529	-1.643
124.000	1.317	124.000	3514341587.346	1764.058	630.875	2394.933	0.263	-0.848	-0.366	-0.090	-1.643
125.000	1.249	125.000	3514341588.846	1570.163	391.411	1961.574	0.200	-0.848	-0.366	-0.090	-1.643
126.000	1.249	126.000	3514341590.347	1626.729	455.150	2081.878	0.219	-0.848	-0.366	-0.090	0.270
127.000	1.015	127.000	3514341591.846	1647.020	264.723	1911.742	0.138	-0.848	-0.366	-0.090	0.270
128.000	1.015	128.000	3514341593.346	1823.732	510.600	2334.332	0.219	1.121	-0.366	-0.090	0.270
129.000	2.229	129.000	3514341594.845	1361.749	753.419	2115.168	0.356	1.121	-0.366	-0.090	0.270
130.000	2.229	130.000	3514341596.345	1968.698	283.667	2252.365	0.126	1.121	0.102	-0.090	0.270
131.000	2.321	131.000	3514341597.846	1346.565	881.982	2228.547	0.396	1.121	0.102	-0.090	0.270
132.000	2.321	132.000	3514341599.346	1896.725	441.830	2338.555	0.189	1.121	0.102	0.168	0.270
133.000	1.979	133.000	3514341600.847	1314.241	1073.100	2387.341	0.449	1.121	0.102	0.168	0.270
134.000	1.979	134.000	3514341602.348	2138.439	223.579	2362.018	0.095	1.121	0.102	0.168	0.706
135.000	1.274	135.000	3514341603.846	976.490	904.774	1881.265	0.481	1.121	0.102	0.168	0.706
136.000	1.274	136.000	3514341605.347	1547.475	600.387	2147.862	0.280	-2.026	0.102	0.168	0.706
137.000	-0.756	137.000	3514341606.847	1630.325	510.600	2140.926	0.238	-2.026	0.102	0.168	0.706
138.000	-0.756	138.000	3514341608.347	1849.173	109.619	1958.792	0.056	-2.026	-1.820	0.168	0.706
139.000	-2.677	139.000	3514341609.846	1541.214	544.443	2085.657	0.261	-2.026	-1.820	0.168	0.706
140.000	-2.677	140.000	3514341611.346	1585.392	612.819	2198.212	0.279	-2.026	-1.820	-3.123	0.706
141.000	0.418	141.000	3514341612.846	1946.010	146.619	2092.628	0.070	-2.026	-1.820	-3.123	0.706
142.000	0.418	142.000	3514341614.345	1353.136	945.129	2298.265	0.411	-2.026	-1.820	-3.123	-1.772
143.000	2.281	143.000	3514341615.846	2003.019	160.432	2163.451	0.074	-2.026	-1.820	-3.123	-1.772
144.000	2.281	144.000	3514341617.346	1481.185	538.129	2019.314	0.266	-1.606	-1.820	-3.123	-1.772
145.000	0.590	145.000	3514341618.846	1753.402	453.768	2207.171	0.206	-1.606	-1.820	-3.123	-1.772
146.000	0.590	146.000	3514341620.346	1279.476	533.491	1812.967	0.294	-1.606	0.156	-3.123	-1.772
147.000	0.648	147.000	3514341621.847	1731.380	273.307	2004.686	0.136	-1.606	0.156	-3.123	-1.772
148.000	0.648	148.000	3514341623.348	1629.881	399.995	2029.876	0.197	-1.606	0.156	3.002	-1.772
149.000	-2.533	149.000	3514341624.847	1040.826	970.190	2011.016	0.482	-1.606	0.156	3.002	-1.772
150.000	-2.533	150.000	3514341626.347	2020.557	192.894	2213.451	0.087	-1.606	0.156	3.002	1.693
151.000	-4.215	151.000	3514341627.846	1332.623	911.878	2244.501	0.406	-1.606	0.156	3.002	1.693
152.000	-4.215	152.000	3514341629.347	1668.953	456.827	2125.780	0.215	0.780	0.156	3.002	1.693
153.000	-3.484	153.000	3514341630.845	1706.782	322.936	2029.718	0.159	0.780	0.156	3.002	1.693
154.000	-3.484	154.000	3514341632.345	1655.678	389.536	2045.214	0.190	0.780	0.534	3.002	1.693
155.000	-3.027	155.000	3514341633.847	1777.778	357.075	2134.853	0.167	0.780	0.534	3.002	1.693
156.000	-3.027	156.000	3514341635.346	1585.570	836.299	2421.869	0.345	0.780	0.534	-3.479	1.693
157.000	0.438	157.000	3514341636.846	2208.325	115.637	2323.962	0.050	0.780	0.534	-3.479	1.693
158.000	0.438	158.000	3514341638.347	1084.294	929.342	2013.636	0.462	0.780	0.534	-3.479	-1.684
159.000	2.217	159.000	3514341639.847	1704.029	426.339	2130.368	0.200	0.780	0.534	-3.479	-1.684
160.000	2.217	160.000	3514341641.347	1204.529	489.190	1693.719	0.289	0.276	0.534	-3.479	-1.684
161.000	2.455	161.000	3514341642.846	1572.783	334.184	1906.967	0.175	0.276	0.534	-3.479	-1.684
162.000	2.455	162.000	3514341644.347	1631.036	425.648	2056.684	0.207	0.276	1.567	-3.479	-1.684
163.000	4.020	163.000	3514341645.846	1065.823	710.302	1776.125	0.400	0.276	1.567	-3.479	-1.684
164.000	4.020	164.000	3514341647.347	1765.790	393.384	2159.174	0.182	0.276	1.567	3.624	-1.684
165.000	0.201	165.000	3514341648.846	845.022	1077.836	1922.857	0.561	0.276	1.567	3.624	-1.684
166.000	0.201	166.000	3514341650.347	1946.320	124.813	2071.134	0.060	0.276	1.567	3.624	0.781
167.000	-0.519	167.000	3514341651.847	1193.828	714.643	1908.472	0.374	0.276	1.567	3.624	0.781
168.000	-0.519	168.000	3514341653.347	1521.367	331.915	1853.282	0.179	0.279	1.567	3.624	0.781
169.000	-0.266	169.000	3514341654.847	1465.867	560.526	2026.393	0.277	0.279	1.567	3.624	0.781
170.000	-0.266	170.000	3514341656.347	1832.434	213.416	2045.850	0.104	0.279	-1.916	3.624	0.781
171.000	-2.281	171.000	3514341657.847	1354.246	380.755	1735.001	0.219	0.279	-1.916	3.624	0.781
180.000	0.947	180.000	3514341671.347	1272.772	636.499	1909.271	0.333	-1.516	-1.274	2.072	-1.719
181.000	-0.970	181.000	3514341672.847	1559.374	551.251	2110.625	0.261	-1.516	-1.274	2.072	-1.719
182.000	-0.970	182.000	3514341674.348	1333.022	591.606	1924.628	0.307	-1.516	-1.274	2.072	0.936
183.000	-1.811	183.000	3514341675.847	1661.405	419.926	2081.331	0.202	-1.516	-1.274	2.072	0.936
184.000	-1.811	184.000	3514341677.348	1320.146	620.318	1940.464	0.320	1.953	-1.274	2.072	0.936
185.000	0.223	185.000	3514341678.847	1535.531	588.745	2124.275	0.277	1.953	-1.274	2.072	0.936
186.000	0.223	186.000	3514341680.347	1556.311	200.195	1756.505	0.114	1.953	1.071	2.072	0.936
187.000	1.317	187.000	3514341681.847	1689.066	418.150	2107.216	0.198	1.953	1.071	2.072	0.936
188.000	1.317	188.000	3514341683.347	1526.207	461.760	1987.968	0.232	1.953	1.071	0.407	0.936
189.000	0.840	189.000	3514341684.847	1300.078	852.974	2153.052	0.396	1.953	1.071	0.407	0.936
190.000	0.840	190.000	3514341686.347	1390.965	691.753	2082.717	0.332	1.953	1.071	0.407	1.038
191.000	-0.193	191.000	3514341687.847	1362.770	594.665	1957.435	0.304	1.953	1.071	0.407	1.038
192.000	-0.193	192.000	3514341689.347	1440.959	354.016	1794.975	0.197	-1.436	1.071	0.407	1.038
193.000	-1.615	193.000	3514341690.848	1729.204	219.336	1948.540	0.113	-1.436	1.071	0.407	1.038
194.000	-1.615	194.000	3514341692.348	1576.779	290.771	1867.550	0.156	-1.436	0.298	0.407	1.038
195.000	-1.327	195.000	3514341693.848	1554.623	462.451	2017.074	0.229	-1.436	0.298	0.407	1.038
196.000	-1.327	196.000	3514341695.347	1792.874	87.517	1880.391	0.047	-1.436	0.298	-0.563	1.038
197.000	-0.752	197.000	3514341696.848	1427.506	534.478	1961.984	0.272	-1.436	0.298	-0.563	1.038
198.000	-0.752	198.000	3514341698.347	1294.173	707.243	2001.416	0.353	-1.436	0.298	-0.563	-0.938
199.000	0.221	199.000	3514341699.847	1199.334	457.912	1657.246	0.276	-1.436	0.298	-0.563	-0.938
200.000	0.221	200.000	3514341701.346	1349.983	669.059	2019.043	0.331	0.380	0.298	-0.563	-0.938
201.000	0.559	201.000	3514341702.845	1714.685	416.966	2131.651	0.196	0.380	0.298	-0.563	-0.938
202.000	0.559	202.000	3514341704.347	1620.868	285.936	1906.804	0.150	0.380	-1.608	-0.563	-0.938
203.000	-1.071	203.000	3514341705.848	1684.005	481.494	2165.499	0.222	0.380	-1.608	-0.563	-0.938
204.000	-1.071	204.000	3514341707.347	1295.194	589.139	1884.333	0.313	0.380	-1.608	0.712	-0.938
205.000	-1.799	205.000	3514341708.848	1252.481	680.801	1933.282	0.352	0.380	-1.608	0.712	-0.938
206.000	-1.799	206.000	3514341710.349	1809.879	336.750	2146.629	0.157	0.380	-1.608	0.712	0.485
207.000	-2.333	207.000	3514341711.848	1040.693	888.395	1929.088	0.461	0.380	-1.608	0.712	0.485
208.000	-2.333	208.000	3514341713.348	1453.924	510.699	1964.623	0.260	-0.402	-1.608	0.712	0.485
209.000	-2.740	209.000	3514341714.847	1531.357	400.784	1932.142	0.207	-0.402	-1.608	0.712	0.485
210.000	-2.740	210.000	3514341716.347	1718.104	136.357	1854.461	0.074	-0.402	0.795	0.712	0.485
211.000	-1.969	211.000	3514341717.847	1698.124	355.299	2053.423	0.173	-0.402	0.795	0.712	0.485
212.000	-1.969	212.000	3514341719.347	1529.537	549.673	2079.209	0.264	-0.402	0.795	-1.718	0.485
213.000	-0.260	213.000	3514341720.847	1496.548	624.857	2121.405	0.295	-0.402	0.795	-1.718	0.485
214.000	-0.260	214.000	3514341722.347	1445.177	816.270	2261.447	0.361	-0.402	0.795	-1.718	-1.765
215.000	1.541	215.000	3514341723.848	1605.861	336.454	1942.314	0.173	-0.402	0.795	-1.718	-1.765
216.000	1.541	216.000	3514341725.348	1314.596	598.019	1912.616	0.313	-1.178	0.795	-1.718	-1.765
217.000	0.246	217.000	3514341726.848	1509.291	432.950	1942.241	0.223	-1.178	0.795	-1.718	-1.765
218.000	0.246	218.000	3514341728.348	1627.261	442.126	2069.387	0.214	-1.178	0.804	-1.718	-1.765
219.000	1.055	219.000	3514341729.847	1716.550	590.027	2306.577	0.256	-1.178	0.804	-1.718	-1.765
220.000	1.055	220.000	3514341731.347	1607.459	427.424	2034.884	0.210	-1.178	0.804	0.584	-1.765
221.000	0.527	221.000	3514341732.847	1447.397	605.320	2052.718	0.295	-1.178	0.804	0.584	-1.765
222.000	0.527	222.000	3514341734.348	1443.934	507.147	1951.081	0.260	-1.178	0.804	0.584	1.227
223.000	-0.615	223.000	3514341735.847	1245.865	617.851	1863.717	0.332	-1.178	0.804	0.584	1.227
224.000	-0.615	224.000	3514341737.347	1662.515	358.456	2020.971	0.177	-0.082	0.804	0.584	1.227
225.000	-0.843	225.000	3514341738.847	1798.246	276.760	2075.006	0.133	-0.082	0.804	0.584	1.227
226.000	-0.843	226.000	3514341740.347	1701.232	599.993	2301.224	0.261	-0.082	-0.403	0.584	1.227
227.000	-1.280	227.000	3514341741.848	1346.476	538.918	1885.394	0.286	-0.082	-0.403	0.584	1.227
228.000	-1.280	228.000	3514341743.348	2121.079	302.808	2423.887	0.125	-0.082	-0.403	-0.308	1.227
229.000	-0.878	229.000	3514341744.848	1217.849	708.822	1926.671	0.368	-0.082	-0.403	-0.308	1.227
230.000	-0.878	230.000	3514341746.348	1241.381	879.713	2121.094	0.415	-0.082	-0.403	-0.308	-1.356
231.000	0.576	231.000	3514341747.848	1385.903	367.435	1753.338	0.210	-0.082	-0.403	-0.308	-1.356
232.000	0.576	232.000	3514341749.347	1678.721	478.830	2157.551	0.222	1.121	-0.403	-0.308	-1.356
233.000	1.691	233.000	3514341750.847	1606.660	444.987	2051.647	0.217	1.121	-0.403	-0.308	-1.356
234.000	1.691	234.000	3514341752.348	1549.650	355.102	1904.752	0.186	1.121	-1.416	-0.308	-1.356
235.000	0.164	235.000	3514341753.847	1918.881	391.806	2310.687	0.170	1.121	-1.416	-0.308	-1.356
236.000	0.164	236.000	3514341755.347	1221.667	843.700	2065.367	0.408	1.121	-1.416	0.412	-1.356
237.000	-0.111	237.000	3514341756.848	1469.641	806.996	2276.637	0.354	1.121	-1.416	0.412	-1.356
238.000	-0.111	238.000	3514341758.349	1430.214	749.966	2180.180	0.344	1.121	-1.416	0.412	0.109
239.000	-0.112	239.000	3514341759.849	2014.519	236.702	2251.220	0.105	1.121	-1.416	0.412	0.109
240.000	-0.112	240.000	3514341761.348	1063.603	741.283	1804.886	0.411	-0.268	-1.416	0.412	0.109
241.000	-0.564	241.000	3514341762.848	1757.576	362.896	2120.472	0.171	-0.268	-1.416	0.412	0.109
242.000	-0.564	242.000	3514341764.349	1589.078	501.918	2090.995	0.240	-0.268	2.103	0.412	0.109
243.000	1.458	243.000	3514341765.848	1274.770	891.060	2165.829	0.411	-0.268	2.103	0.412	0.109
244.000	1.458	244.000	3514341767.348	1963.414	360.232	2323.647	0.155	-0.268	2.103	-0.092	0.109
245.000	1.656	245.000	3514341768.847	1369.075	1004.724	2373.799	0.423	-0.268	2.103	-0.092	0.109
246.000	1.656	246.000	3514341770.348	1792.163	741.481	2533.644	0.293	-0.268	2.103	-0.092	2.689
247.000	-0.931	247.000	3514341771.847	1094.594	1066.982	2161.576	0.494	-0.268	2.103	-0.092	2.689
248.000	-0.931	248.000	3514341773.347	2039.915	242.128	2282.044	0.106	0.606	2.103	-0.092	2.689
