mesurement	 time stamp	N1S0	N3P0	 Ntot	ex.rate	time stamp 2		# AOM frequency A	# AOM frequency B	# Zeeman shift (Hz)	# fHgAOM (Hz)	# drift rate A	# drift rate B
18.000	11.026	18.000	3514346026.896	1998.757	122.741	2121.498	0.058	0.472	-0.739	-1.906	-2.649
19.000	10.288	19.000	3514346028.397	1743.012	656.134	2399.146	0.273	0.472	-0.739	-1.906	-2.649
28.000	10.853	28.000	3514346041.898	2315.374	25.160	2340.533	0.011	-2.356	-2.008	-1.551	-0.788
29.000	12.698	29.000	3514346043.397	1216.117	786.275	2002.393	0.393	-2.356	-2.008	-1.551	-0.788
38.000	13.385	38.000	3514346056.897	1456.277	549.870	2006.147	0.274	-3.410	-3.230	-2.287	1.869
39.000	11.723	39.000	3514346058.398	1424.886	510.995	1935.882	0.264	-3.410	-3.230	-2.287	1.869
40.000	11.723	40.000	3514346059.897	1881.629	217.856	2099.486	0.104	-3.157	-3.230	-2.287	1.869
41.000	8.098	41.000	3514346061.398	1246.398	683.563	1929.961	0.354	-3.157	-3.230	-2.287	1.869
42.000	8.098	42.000	3514346062.897	2276.612	8.781	2285.394	0.004	-3.157	-3.596	-2.287	1.869
43.000	4.042	43.000	3514346064.398	1122.255	802.950	1925.206	0.417	-3.157	-3.596	-2.287	1.869
44.000	4.042	44.000	3514346065.897	2290.198	-6.611	2283.588	-0.003	-3.157	-3.596	0.853	1.869
45.000	3.591	45.000	3514346067.398	718.837	1500.130	2218.966	0.676	-3.157	-3.596	0.853	1.869
46.000	3.591	46.000	3514346068.897	1832.701	461.070	2293.770	0.201	-3.157	-3.596	0.853	-1.410
47.000	5.288	47.000	3514346070.397	989.766	842.516	1832.281	0.460	-3.157	-3.596	0.853	-1.410
48.000	5.288	48.000	3514346071.897	2255.211	207.990	2463.201	0.084	-3.083	-3.596	0.853	-1.410
49.000	1.561	49.000	3514346073.397	1241.514	595.553	1837.067	0.324	-3.083	-3.596	0.853	-1.410
50.000	1.561	50.000	3514346074.897	1668.998	246.075	1915.073	0.128	-3.083	-3.696	0.853	-1.410
51.000	-2.803	51.000	3514346076.397	1209.724	1086.913	2296.637	0.473	-3.083	-3.696	0.853	-1.410
60.000	-1.548	60.000	3514346089.897	2436.940	118.893	2555.834	0.047	-1.722	-3.943	0.246	-3.303
61.000	-1.145	61.000	3514346091.397	1618.470	700.929	2319.399	0.302	-1.722	-3.943	0.246	-3.303
72.000	-4.480	72.000	3514346107.897	2032.767	138.528	2171.295	0.064	0.208	-2.191	-1.830	2.751
73.000	-5.062	73.000	3514346109.397	1057.520	775.323	1832.844	0.423	0.208	-2.191	-1.830	2.751
74.000	-5.062	74.000	3514346110.897	2007.015	129.451	2136.466	0.061	0.208	0.654	-1.830	2.751
75.000	-5.482	75.000	3514346112.398	1094.949	941.380	2036.329	0.462	0.208	0.654	-1.830	2.751
76.000	-5.482	76.000	3514346113.898	2004.129	274.984	2279.113	0.121	0.208	0.654	-1.559	2.751
77.000	-3.032	77.000	3514346115.398	781.663	1403.732	2185.395	0.642	0.208	0.654	-1.559	2.751
78.000	-3.032	78.000	3514346116.898	2098.657	170.792	2269.449	0.075	0.208	0.654	-1.559	-2.063
79.000	-0.495	79.000	3514346118.398	823.976	1202.156	2026.132	0.593	0.208	0.654	-1.559	-2.063
80.000	-0.495	80.000	3514346119.898	2229.281	-40.749	2188.532	-0.019	-3.189	0.654	-1.559	-2.063
81.000	-4.674	81.000	3514346121.397	1210.168	872.116	2082.283	0.419	-3.189	0.654	-1.559	-2.063
82.000	-4.674	82.000	3514346122.897	1955.822	122.840	2078.662	0.059	-3.189	-3.006	-1.559	-2.063
83.000	-8.957	83.000	3514346124.397	1904.629	339.019	2243.648	0.151	-3.189	-3.006	-1.559	-2.063
112.000	6.730	112.000	3514346167.898	1859.829	236.603	2096.432	0.113	0.493	-2.423	-3.735	-1.901
113.000	5.872	113.000	3514346169.398	1363.392	547.206	1910.598	0.286	0.493	-2.423	-3.735	-1.901
114.000	5.872	114.000	3514346170.898	1852.059	76.763	1928.822	0.040	0.493	-0.581	-3.735	-1.901
115.000	3.633	115.000	3514346172.399	1576.379	213.416	1789.796	0.119	0.493	-0.581	-3.735	-1.901
124.000	-2.143	124.000	3514346185.899	1690.354	337.934	2028.288	0.167	-2.170	1.485	-2.671	-1.532
125.000	2.076	125.000	3514346187.399	1495.571	530.926	2026.497	0.262	-2.170	1.485	-2.671	-1.532
126.000	2.076	126.000	3514346188.899	1713.309	448.342	2161.650	0.207	-2.170	1.485	-2.671	-1.009
127.000	4.534	127.000	3514346190.398	1684.760	153.328	1838.088	0.083	-2.170	1.485	-2.671	-1.009
128.000	4.534	128.000	3514346191.898	1761.749	371.974	2133.723	0.174	-0.774	1.485	-2.671	-1.009
129.000	2.117	129.000	3514346193.398	1778.266	525.598	2303.864	0.228	-0.774	1.485	-2.671	-1.009
130.000	2.117	130.000	3514346194.898	1696.259	117.019	1813.278	0.065	-0.774	-1.247	-2.671	-1.009
131.000	-0.943	131.000	3514346196.398	1413.209	536.254	1949.463	0.275	-0.774	-1.247	-2.671	-1.009
132.000	-0.943	132.000	3514346197.898	1801.487	227.624	2029.112	0.112	-0.774	-1.247	-0.480	-1.009
133.000	1.187	133.000	3514346199.399	1346.831	590.323	1937.154	0.305	-0.774	-1.247	-0.480	-1.009
134.000	1.187	134.000	3514346200.898	1572.339	560.625	2132.963	0.263	-0.774	-1.247	-0.480	0.800
135.000	1.868	135.000	3514346202.399	1360.639	726.385	2087.024	0.348	-0.774	-1.247	-0.480	0.800
136.000	1.868	136.000	3514346203.899	1546.809	428.115	1974.924	0.217	-1.440	-1.247	-0.480	0.800
137.000	-1.368	137.000	3514346205.399	1852.458	88.899	1941.357	0.046	-1.440	-1.247	-0.480	0.800
138.000	-1.368	138.000	3514346206.898	1603.730	305.078	1908.807	0.160	-1.440	-1.434	-0.480	0.800
139.000	-4.777	139.000	3514346208.398	1986.502	14.701	2001.204	0.007	-1.440	-1.434	-0.480	0.800
140.000	-4.777	140.000	3514346209.899	1723.698	387.168	2110.867	0.183	-1.440	-1.434	-0.369	0.800
141.000	-2.658	141.000	3514346211.398	1719.125	313.859	2032.984	0.154	-1.440	-1.434	-0.369	0.800
142.000	-2.658	142.000	3514346212.899	899.234	976.505	1875.739	0.521	-1.440	-1.434	-0.369	-1.155
143.000	0.110	143.000	3514346214.399	1006.283	674.091	1680.374	0.401	-1.440	-1.434	-0.369	-1.155
144.000	0.110	144.000	3514346215.898	1788.301	218.350	2006.650	0.109	1.004	-1.434	-0.369	-1.155
145.000	-0.722	145.000	3514346217.399	1767.477	277.648	2045.125	0.136	1.004	-1.434	-0.369	-1.155
154.000	-1.088	154.000	3514346230.897	1911.910	211.443	2123.353	0.100	0.656	1.426	3.223	-2.573
155.000	-1.664	155.000	3514346232.399	1996.803	199.504	2196.307	0.091	0.656	1.426	3.223	-2.573
156.000	-1.664	156.000	3514346233.900	1748.740	358.851	2107.591	0.170	0.656	1.426	-3.934	-2.573
157.000	4.227	157.000	3514346235.399	1634.410	316.326	1950.736	0.162	0.656	1.426	-3.934	-2.573
158.000	4.227	158.000	3514346236.899	2048.041	312.182	2360.222	0.132	0.656	1.426	-3.934	1.631
159.000	4.428	159.000	3514346238.399	870.285	734.377	1604.662	0.458	0.656	1.426	-3.934	1.631
160.000	4.428	160.000	3514346239.899	1518.392	681.886	2200.278	0.310	-0.343	1.426	-3.934	1.631
161.000	2.078	161.000	3514346241.399	1735.820	204.043	1939.863	0.105	-0.343	1.426	-3.934	1.631
162.000	2.078	162.000	3514346242.899	1789.632	93.437	1883.070	0.050	-0.343	0.699	-3.934	1.631
163.000	0.709	163.000	3514346244.399	2137.374	274.984	2412.358	0.114	-0.343	0.699	-3.934	1.631
164.000	0.709	164.000	3514346245.898	2080.808	303.894	2384.702	0.127	-0.343	0.699	-0.263	1.631
165.000	3.040	165.000	3514346247.398	1324.276	928.750	2253.026	0.412	-0.343	0.699	-0.263	1.631
166.000	3.040	166.000	3514346248.899	2262.227	149.973	2412.200	0.062	-0.343	0.699	-0.263	-1.300
167.000	6.329	167.000	3514346250.398	1551.248	229.992	1781.241	0.129	-0.343	0.699	-0.263	-1.300
176.000	9.447	176.000	3514346263.898	1673.615	219.830	1893.445	0.116	0.955	0.118	-3.080	0.307
177.000	8.342	177.000	3514346265.399	1286.269	582.035	1868.304	0.312	0.955	0.118	-3.080	0.307
178.000	8.342	178.000	3514346266.898	1980.109	196.051	2176.159	0.090	0.955	-1.093	-3.080	0.307
179.000	4.922	179.000	3514346268.398	1697.902	635.019	2332.921	0.272	0.955	-1.093	-3.080	0.307
180.000	4.922	180.000	3514346269.899	2271.417	261.664	2533.082	0.103	0.955	-1.093	3.625	0.307
181.000	3.351	181.000	3514346271.399	1416.805	570.985	1987.790	0.287	0.955	-1.093	3.625	0.307
182.000	3.351	182.000	3514346272.899	1386.969	908.622	2295.591	0.396	0.955	-1.093	3.625	-0.061
183.000	5.591	183.000	3514346274.400	1987.657	-33.547	1954.110	-0.017	0.955	-1.093	3.625	-0.061
184.000	5.591	184.000	3514346275.899	1870.485	399.699	2270.184	0.176	-1.949	-1.093	3.625	-0.061
185.000	1.383	185.000	3514346277.399	1836.386	170.496	2006.882	0.085	-1.949	-1.093	3.625	-0.061
186.000	1.383	186.000	3514346278.899	1596.226	393.483	1989.709	0.198	-1.949	-1.486	3.625	-0.061
187.000	-2.622	187.000	3514346280.399	1545.743	640.051	2185.794	0.293	-1.949	-1.486	3.625	-0.061
188.000	-2.622	188.000	3514346281.899	1601.110	563.190	2164.300	0.260	-1.949	-1.486	0.955	-0.061
189.000	-1.556	189.000	3514346283.399	1376.845	967.230	2344.076	0.413	-1.949	-1.486	0.955	-0.061
198.000	-0.690	198.000	3514346296.899	1478.744	392.102	1870.845	0.210	0.993	-0.287	-0.827	0.309
199.000	1.234	199.000	3514346298.399	1734.443	171.680	1906.123	0.090	0.993	-0.287	-0.827	0.309
200.000	1.234	200.000	3514346299.898	1378.666	811.633	2190.299	0.371	-0.286	-0.287	-0.827	0.309
201.000	-1.506	201.000	3514346301.399	1762.593	259.296	2021.889	0.128	-0.286	-0.287	-0.827	0.309
202.000	-1.506	202.000	3514346302.899	1469.197	728.753	2197.950	0.332	-0.286	1.377	-0.827	0.309
203.000	-2.580	203.000	3514346304.400	2068.509	290.475	2358.984	0.123	-0.286	1.377	-0.827	0.309
204.000	-2.580	204.000	3514346305.900	1395.404	692.838	2088.242	0.332	-0.286	1.377	1.363	0.309
205.000	-1.853	205.000	3514346307.400	1645.510	518.000	2163.510	0.239	-0.286	1.377	1.363	0.309
206.000	-1.853	206.000	3514346308.900	1047.397	1036.593	2083.990	0.497	-0.286	1.377	1.363	2.468
207.000	-2.347	207.000	3514346310.400	1636.319	508.529	2144.848	0.237	-0.286	1.377	1.363	2.468
208.000	-2.347	208.000	3514346311.899	1610.567	617.654	2228.221	0.277	1.789	1.377	1.363	2.468
209.000	-2.927	209.000	3514346313.399	1877.367	201.971	2079.338	0.097	1.789	1.377	1.363	2.468
210.000	-2.927	210.000	3514346314.900	1765.035	333.494	2098.529	0.159	1.789	1.836	1.363	2.468
211.000	-3.379	211.000	3514346316.399	2169.564	104.093	2273.657	0.046	1.789	1.836	1.363	2.468
212.000	-3.379	212.000	3514346317.899	1486.647	576.707	2063.354	0.279	1.789	1.836	2.270	2.468
213.000	-3.797	213.000	3514346319.400	786.724	1086.617	1873.341	0.580	1.789	1.836	2.270	2.468
214.000	-3.797	214.000	3514346320.899	2127.828	15.589	2143.417	0.007	1.789	1.836	2.270	0.353
215.000	-2.015	215.000	3514346322.401	1736.042	615.779	2351.821	0.262	1.789	1.836	2.270	0.353
216.000	-2.015	216.000	3514346323.900	1089.488	731.219	1820.708	0.402	0.544	1.836	2.270	0.353
217.000	-3.755	217.000	3514346325.400	1547.253	407.296	1954.549	0.208	0.544	1.836	2.270	0.353
218.000	-3.755	218.000	3514346326.900	1811.655	498.267	2309.922	0.216	0.544	2.057	2.270	0.353
219.000	-3.791	219.000	3514346328.400	1662.870	593.185	2256.055	0.263	0.544	2.057	2.270	0.353
240.000	6.332	240.000	3514346359.900	1571.140	310.208	1881.348	0.165	-0.371	1.517	-1.214	0.128
241.000	3.786	241.000	3514346361.400	1839.805	114.552	1954.357	0.059	-0.371	1.517	-1.214	0.128
242.000	3.786	242.000	3514346362.900	1749.095	266.598	2015.693	0.132	-0.371	-1.649	-1.214	0.128
243.000	0.104	243.000	3514346364.400	1538.595	544.739	2083.334	0.261	-0.371	-1.649	-1.214	0.128
256.000	-0.441	256.000	3514346383.900	868.598	1138.318	2006.917	0.567	-0.412	0.395	1.071	1.860
257.000	-3.039	257.000	3514346385.400	2097.946	95.805	2193.752	0.044	-0.412	0.395	1.071	1.860
258.000	-3.039	258.000	3514346386.900	1132.645	927.566	2060.211	0.450	-0.412	0.952	1.071	1.860
259.000	-4.010	259.000	3514346388.400	1916.661	35.224	1951.885	0.018	-0.412	0.952	1.071	1.860
260.000	-4.010	260.000	3514346389.900	1744.700	-31.475	1713.225	-0.018	-0.412	0.952	0.390	1.860
261.000	-2.489	261.000	3514346391.401	1815.784	426.438	2242.222	0.190	-0.412	0.952	0.390	1.860
292.000	-2.020	292.000	3514346437.900	1324.365	1093.031	2417.395	0.452	-0.054	-1.428	-3.939	-3.560
293.000	3.676	293.000	3514346439.400	1978.777	457.912	2436.689	0.188	-0.054	-1.428	-3.939	-3.560
302.000	0.943	302.000	3514346452.901	2231.368	25.555	2256.923	0.011	0.301	3.277	1.959	0.566
303.000	2.061	303.000	3514346454.402	2215.873	-124.320	2091.553	-0.059	0.301	3.277	1.959	0.566
304.000	2.061	304.000	3514346455.900	2134.887	-29.304	2105.583	-0.014	-2.019	3.277	1.959	0.566
305.000	-1.701	305.000	3514346457.401	2157.531	-13.813	2143.718	-0.006	-2.019	3.277	1.959	0.566
332.000	-5.323	332.000	3514346497.902	1988.190	297.283	2285.473	0.130	0.180	1.406	-0.259	-3.399
333.000	-3.547	333.000	3514346499.402	1053.214	800.089	1853.302	0.432	0.180	1.406	-0.259	-3.399
342.000	-6.985	342.000	3514346512.901	2166.989	374.046	2541.034	0.147	-0.084	-0.366	-3.903	-1.466
343.000	-3.983	343.000	3514346514.404	1133.844	826.334	1960.178	0.422	-0.084	-0.366	-3.903	-1.466
344.000	-3.983	344.000	3514346515.901	1387.146	387.267	1774.413	0.218	1.633	-0.366	-3.903	-1.466
345.000	-3.977	345.000	3514346517.403	1707.892	439.462	2147.354	0.205	1.633	-0.366	-3.903	-1.466
346.000	-3.977	346.000	3514346518.902	1730.447	-40.059	1690.388	-0.024	1.633	-0.621	-3.903	-1.466
347.000	-6.351	347.000	3514346520.403	1863.692	193.979	2057.671	0.094	1.633	-0.621	-3.903	-1.466
362.000	3.202	362.000	3514346542.902	1553.557	491.459	2045.017	0.240	0.827	0.549	0.411	-1.891
363.000	2.036	363.000	3514346544.402	1794.294	122.939	1917.233	0.064	0.827	0.549	0.411	-1.891
364.000	2.036	364.000	3514346545.903	1603.774	523.230	2127.004	0.246	0.827	0.549	3.026	-1.891
365.000	0.479	365.000	3514346547.403	698.457	1309.801	2008.258	0.652	0.827	0.549	3.026	-1.891
366.000	0.479	366.000	3514346548.903	2054.124	326.784	2380.908	0.137	0.827	0.549	3.026	1.462
367.000	0.552	367.000	3514346550.403	978.044	776.113	1754.157	0.442	0.827	0.549	3.026	1.462
368.000	0.552	368.000	3514346551.902	1143.257	733.883	1877.140	0.391	0.322	0.549	3.026	1.462
369.000	-0.690	369.000	3514346553.403	1066.933	425.254	1492.187	0.285	0.322	0.549	3.026	1.462
370.000	-0.690	370.000	3514346554.903	1830.081	-146.915	1683.166	-0.087	0.322	1.600	3.026	1.462
371.000	-0.648	371.000	3514346556.403	1179.887	620.515	1800.402	0.345	0.322	1.600	3.026	1.462
394.000	-1.548	394.000	3514346590.903	1975.358	396.344	2371.702	0.167	-1.367	-0.907	-0.575	-0.465
395.000	-4.030	395.000	3514346592.403	2291.397	75.875	2367.272	0.032	-1.367	-0.907	-0.575	-0.465
414.000	2.268	414.000	3514346620.905	1106.050	718.393	1824.442	0.394	-0.116	-1.637	-0.765	3.467
415.000	0.299	415.000	3514346622.406	1353.846	694.121	2047.967	0.339	-0.116	-1.637	-0.765	3.467
424.000	-2.494	424.000	3514346635.903	1181.174	831.465	2012.639	0.413	0.409	-0.698	2.692	-0.924
425.000	-3.541	425.000	3514346637.404	1657.542	494.222	2151.764	0.230	0.409	-0.698	2.692	-0.924
426.000	-3.541	426.000	3514346638.904	1414.319	689.483	2103.802	0.328	0.409	1.285	2.692	-0.924
427.000	-3.748	427.000	3514346640.405	1698.923	769.305	2468.228	0.312	0.409	1.285	2.692	-0.924
428.000	-3.748	428.000	3514346641.905	2009.590	310.504	2320.095	0.134	0.409	1.285	-2.709	-0.924
429.000	0.557	429.000	3514346643.405	1672.683	280.707	1953.390	0.144	0.409	1.285	-2.709	-0.924
430.000	0.557	430.000	3514346644.906	2202.331	59.595	2261.926	0.026	0.409	1.285	-2.709	2.903
431.000	-1.096	431.000	3514346646.406	881.341	793.577	1674.917	0.474	0.409	1.285	-2.709	2.903
432.000	-1.096	432.000	3514346647.904	2350.050	-149.875	2200.175	-0.068	0.863	1.285	-2.709	2.903
433.000	-1.608	433.000	3514346649.404	1316.417	619.923	1936.340	0.320	0.863	1.285	-2.709	2.903
434.000	-1.608	434.000	3514346650.904	1669.042	143.560	1812.602	0.079	0.863	-1.565	-2.709	2.903
435.000	-4.793	435.000	3514346652.404	2189.677	-91.957	2097.719	-0.044	0.863	-1.565	-2.709	2.903
468.000	2.115	468.000	3514346701.906	1636.452	64.528	1700.980	0.038	0.156	1.749	0.365	-1.451
469.000	3.269	469.000	3514346703.405	1925.363	121.755	2047.118	0.059	0.156	1.749	0.365	-1.451
470.000	3.269	470.000	3514346704.906	581.774	1110.001	1691.775	0.656	0.156	1.749	0.365	-0.578
471.000	5.448	471.000	3514346706.406	1426.307	492.347	1918.654	0.257	0.156	1.749	0.365	-0.578
472.000	5.448	472.000	3514346707.906	1495.527	330.435	1825.962	0.181	0.820	1.749	0.365	-0.578
473.000	4.779	473.000	3514346709.406	1285.914	630.777	1916.691	0.329	0.820	1.749	0.365	-0.578
484.000	-3.864	484.000	3514346725.906	889.200	754.110	1643.310	0.459	-2.245	-0.334	-1.492	-0.666
485.000	-0.954	485.000	3514346727.406	1604.928	346.715	1951.643	0.178	-2.245	-0.334	-1.492	-0.666
486.000	-0.954	486.000	3514346728.906	1845.443	299.256	2144.699	0.140	-2.245	-0.334	-1.492	0.912
487.000	-0.239	487.000	3514346730.408	1756.821	334.579	2091.400	0.160	-2.245	-0.334	-1.492	0.912
488.000	-0.239	488.000	3514346731.906	1655.411	70.152	1725.563	0.041	1.613	-0.334	-1.492	0.912
489.000	-0.141	489.000	3514346733.406	1406.238	497.971	1904.209	0.262	1.613	-0.334	-1.492	0.912
490.000	-0.141	490.000	3514346734.906	1595.027	429.398	2024.425	0.212	1.613	2.570	-1.492	0.912
491.000	1.088	491.000	3514346736.406	1249.595	769.403	2018.998	0.381	1.613	2.570	-1.492	0.912
492.000	1.088	492.000	3514346737.907	1863.736	76.368	1940.104	0.039	1.613	2.570	-0.335	0.912
493.000	2.940	493.000	3514346739.406	1368.098	350.760	1718.859	0.204	1.613	2.570	-0.335	0.912
494.000	2.940	494.000	3514346740.907	1543.079	218.547	1761.626	0.124	1.613	2.570	-0.335	-1.050
495.000	5.495	495.000	3514346742.407	1629.393	174.739	1804.132	0.097	1.613	2.570	-0.335	-1.050
496.000	5.495	496.000	3514346743.906	1625.929	316.720	1942.650	0.163	-0.435	2.570	-0.335	-1.050
497.000	3.635	497.000	3514346745.406	1254.301	440.547	1694.848	0.260	-0.435	2.570	-0.335	-1.050
498.000	3.635	498.000	3514346746.906	1285.337	618.246	1903.583	0.325	-0.435	-3.007	-0.335	-1.050
499.000	-1.000	499.000	3514346748.407	1203.197	652.483	1855.680	0.352	-0.435	-3.007	-0.335	-1.050
500.000	-1.000	500.000	3514346749.906	766.434	1319.964	2086.397	0.633	-0.435	-3.007	-0.704	-1.050
501.000	1.513	501.000	3514346751.406	1778.355	18.648	1797.003	0.010	-0.435	-3.007	-0.704	-1.050
502.000	1.513	502.000	3514346752.908	1896.681	-53.083	1843.598	-0.029	-0.435	-3.007	-0.704	0.582
503.000	2.710	503.000	3514346754.408	1602.220	159.347	1761.567	0.090	-0.435	-3.007	-0.704	0.582
504.000	2.710	504.000	3514346755.905	1665.490	400.784	2066.274	0.194	0.571	-3.007	-0.704	0.582
505.000	1.901	505.000	3514346757.406	655.167	831.761	1486.928	0.559	0.571	-3.007	-0.704	0.582
506.000	1.901	506.000	3514346758.908	1583.350	355.792	1939.142	0.183	0.571	2.473	-0.704	0.582
507.000	2.902	507.000	3514346760.407	653.791	1275.465	1929.256	0.661	0.571	2.473	-0.704	0.582
516.000	-3.045	516.000	3514346773.906	767.810	1204.721	1972.531	0.611	-3.308	-2.049	-0.132	0.911
517.000	-1.089	517.000	3514346775.408	1760.018	104.389	1864.407	0.056	-3.308	-2.049	-0.132	0.911
518.000	-1.089	518.000	3514346776.909	1825.064	228.710	2053.773	0.111	-3.308	-2.049	-0.132	-0.005
519.000	0.514	519.000	3514346778.408	1756.865	-11.051	1745.814	-0.006	-3.308	-2.049	-0.132	-0.005
520.000	0.514	520.000	3514346779.907	1644.134	507.542	2151.675	0.236	2.011	-2.049	-0.132	-0.005
521.000	1.097	521.000	3514346781.407	1338.972	473.502	1812.474	0.261	2.011	-2.049	-0.132	-0.005
532.000	2.139	532.000	3514346797.909	1764.502	534.478	2298.980	0.232	1.392	-2.081	0.721	2.131
533.000	3.027	533.000	3514346799.409	1781.996	266.696	2048.692	0.130	1.392	-2.081	0.721	2.131
548.000	3.982	548.000	3514346821.908	1704.518	647.451	2351.969	0.275	2.496	3.729	-2.088	0.275
549.000	7.586	549.000	3514346823.408	1824.886	71.928	1896.814	0.038	2.496	3.729	-2.088	0.275
550.000	7.586	550.000	3514346824.908	1010.811	754.801	1765.612	0.428	2.496	3.729	-2.088	-1.018
551.000	10.075	551.000	3514346826.409	1968.742	32.659	2001.401	0.016	2.496	3.729	-2.088	-1.018
552.000	10.075	552.000	3514346827.920	1831.502	329.547	2161.049	0.152	-0.610	3.729	-2.088	-1.018
553.000	7.993	553.000	3514346829.408	1394.472	681.787	2076.260	0.328	-0.610	3.729	-2.088	-1.018
554.000	7.993	554.000	3514346830.921	1320.146	625.745	1945.891	0.322	-0.610	-0.124	-2.088	-1.018
555.000	6.584	555.000	3514346832.408	1226.729	852.086	2078.815	0.410	-0.610	-0.124	-2.088	-1.018
556.000	6.584	556.000	3514346833.908	1722.855	459.984	2182.839	0.211	-0.610	-0.124	3.428	-1.018
