mesurement	 time stamp	N1S0	N3P0	 Ntot	ex.rate	time stamp 2		# AOM frequency A	# AOM frequency B	# Zeeman shift (Hz)	# fHgAOM (Hz)	# drift rate A	# drift rate B
380.000	45.303	380.000	3512976195.069	1290.843	210.456	1501.299	0.140	3.273	1.303
381.000	48.577	381.000	3512976196.569	658.542	520.862	1179.403	0.442	3.273	1.303
382.000	48.577	382.000	3512976198.061	1160.262	134.680	1294.942	0.104	3.273	-3.913
383.000	44.664	383.000	3512976199.573	979.687	344.446	1324.133	0.260	3.273	-3.913
384.000	44.664	384.000	3512976201.069	936.885	409.072	1345.958	0.304	-3.157	-3.913
385.000	41.507	385.000	3512976202.568	1021.023	266.203	1287.226	0.207	-3.157	-3.913
386.000	41.507	386.000	3512976204.073	856.344	376.907	1233.251	0.306	-3.157	0.410
387.000	41.916	387.000	3512976205.574	742.147	496.688	1238.835	0.401	-3.157	0.410
388.000	41.916	388.000	3512976207.069	989.233	263.342	1252.574	0.210	0.924	0.410
389.000	42.840	389.000	3512976208.574	1087.845	375.723	1463.568	0.257	0.924	0.410
390.000	42.840	390.000	3512976210.073	906.072	277.846	1183.917	0.235	0.924	-1.783
391.000	41.057	391.000	3512976211.575	1021.157	258.408	1279.565	0.202	0.924	-1.783
392.000	41.057	392.000	3512976213.073	885.204	325.896	1211.100	0.269	-0.206	-1.783
393.000	40.851	393.000	3512976214.573	706.760	392.398	1099.157	0.357	-0.206	-1.783
394.000	40.851	394.000	3512976216.073	939.327	318.003	1257.330	0.253	-0.206	0.628
395.000	41.479	395.000	3512976217.575	809.324	332.112	1141.436	0.291	-0.206	0.628
396.000	41.479	396.000	3512976219.074	998.113	466.200	1464.313	0.318	-0.973	0.628
397.000	40.506	397.000	3512976220.569	832.900	295.902	1128.802	0.262	-0.973	0.628
398.000	40.506	398.000	3512976222.069	848.396	278.339	1126.735	0.247	-0.973	0.256
399.000	40.762	399.000	3512976223.574	830.014	412.328	1242.343	0.332	-0.973	0.256
400.000	40.762	400.000	3512976225.068	879.165	321.851	1201.016	0.268	-0.141	0.256
401.000	40.621	401.000	3512976226.569	729.670	326.784	1056.455	0.309	-0.141	0.256
402.000	40.621	402.000	3512976228.060	872.638	208.582	1081.220	0.193	-0.141	-0.598
403.000	40.023	403.000	3512976229.570	797.203	401.376	1198.579	0.335	-0.141	-0.598
404.000	40.023	404.000	3512976231.075	1064.535	196.248	1260.784	0.156	-1.088	-0.598
405.000	38.935	405.000	3512976232.574	900.388	257.224	1157.613	0.222	-1.088	-0.598
406.000	38.935	406.000	3512976234.073	995.982	149.973	1145.955	0.131	-1.088	-1.676
407.000	37.259	407.000	3512976235.574	936.042	203.549	1139.591	0.179	-1.088	-1.676
408.000	37.259	408.000	3512976237.074	918.015	389.734	1307.749	0.298	-0.854	-1.676
409.000	36.405	409.000	3512976238.574	778.155	352.043	1130.198	0.311	-0.854	-1.676
410.000	36.405	410.000	3512976240.072	691.753	431.766	1123.518	0.384	-0.854	1.116
411.000	37.522	411.000	3512976241.569	764.835	477.251	1242.086	0.384	-0.854	1.116
412.000	37.522	412.000	3512976243.069	896.215	277.254	1173.469	0.236	0.681	1.116
413.000	38.203	413.000	3512976244.574	683.716	496.392	1180.109	0.421	0.681	1.116
414.000	38.203	414.000	3512976246.061	993.584	229.696	1223.280	0.188	0.681	-1.383
415.000	36.750	415.000	3512976247.575	891.686	241.536	1133.222	0.213	0.681	-1.383
416.000	36.750	416.000	3512976249.073	975.780	393.582	1369.361	0.287	-2.177	-1.383
417.000	34.464	417.000	3512976250.574	955.400	233.544	1188.944	0.196	-2.177	-1.383
418.000	34.464	418.000	3512976252.062	779.132	347.800	1126.932	0.309	-2.177	0.695
419.000	35.120	419.000	3512976253.575	778.865	180.758	959.623	0.188	-2.177	0.695
420.000	35.120	420.000	3512976255.074	1178.155	180.165	1358.321	0.133	1.049	0.695
421.000	36.108	421.000	3512976256.575	874.592	278.240	1152.832	0.241	1.049	0.695
422.000	36.108	422.000	3512976258.061	880.098	253.574	1133.671	0.224	1.049	-0.521
423.000	35.521	423.000	3512976259.574	801.376	403.547	1204.923	0.335	1.049	-0.521
424.000	35.521	424.000	3512976261.069	967.344	258.507	1225.851	0.211	-0.165	-0.521
425.000	35.282	425.000	3512976262.569	795.072	211.936	1007.008	0.210	-0.165	-0.521
426.000	35.282	426.000	3512976264.070	1100.810	83.768	1184.578	0.071	-0.165	-1.160
427.000	33.995	427.000	3512976265.574	961.838	242.720	1204.558	0.202	-0.165	-1.160
428.000	33.995	428.000	3512976267.073	891.597	226.934	1118.531	0.203	-1.307	-1.160
429.000	32.546	429.000	3512976268.574	947.541	182.139	1129.680	0.161	-1.307	-1.160
430.000	32.546	430.000	3512976270.063	867.710	319.483	1187.193	0.269	-1.307	0.013
431.000	32.427	431.000	3512976271.574	859.363	331.027	1190.390	0.278	-1.307	0.013
432.000	32.427	432.000	3512976273.076	880.542	292.646	1173.187	0.249	1.009	0.013
433.000	33.336	433.000	3512976274.576	674.437	423.872	1098.309	0.386	1.009	0.013
434.000	33.336	434.000	3512976276.073	913.309	174.443	1087.752	0.160	1.009	-0.268
435.000	32.916	435.000	3512976277.576	891.331	89.195	980.526	0.091	1.009	-0.268
436.000	32.916	436.000	3512976279.075	921.567	244.102	1165.669	0.209	-2.109	-0.268
437.000	30.597	437.000	3512976280.574	902.520	183.224	1085.744	0.169	-2.109	-0.268
438.000	30.597	438.000	3512976282.062	820.335	286.627	1106.962	0.259	-2.109	1.107
439.000	31.600	439.000	3512976283.576	673.415	428.016	1101.432	0.389	-2.109	1.107
440.000	31.600	440.000	3512976285.075	1078.921	164.576	1243.497	0.132	0.843	1.107
441.000	32.265	441.000	3512976286.573	700.633	234.235	934.868	0.251	0.843	1.107
442.000	32.265	442.000	3512976288.062	1008.325	49.925	1058.250	0.047	0.843	-2.396
443.000	29.639	443.000	3512976289.576	826.152	320.272	1146.424	0.279	0.843	-2.396
444.000	29.639	444.000	3512976291.076	786.991	235.419	1022.410	0.230	-1.902	-2.396
445.000	27.456	445.000	3512976292.577	814.652	291.955	1106.607	0.264	-1.902	-2.396
446.000	27.456	446.000	3512976294.074	763.991	279.918	1043.909	0.268	-1.902	-0.459
447.000	26.732	447.000	3512976295.574	789.433	300.342	1089.774	0.276	-1.902	-0.459
448.000	26.732	448.000	3512976297.074	855.900	180.758	1036.657	0.174	0.040	-0.459
449.000	26.479	449.000	3512976298.574	771.007	306.360	1077.367	0.284	0.040	-0.459
450.000	26.479	450.000	3512976300.062	802.975	322.443	1125.418	0.287	0.040	-0.947
451.000	25.207	451.000	3512976301.576	781.041	310.307	1091.348	0.284	0.040	-0.947
452.000	25.207	452.000	3512976303.074	797.958	242.720	1040.678	0.233	0.020	-0.947
453.000	24.920	453.000	3512976304.577	769.852	233.150	1003.002	0.232	0.020	-0.947
454.000	24.920	454.000	3512976306.063	820.024	123.531	943.555	0.131	0.020	-0.478
455.000	24.077	455.000	3512976307.570	777.978	232.163	1010.141	0.230	0.020	-0.478
456.000	24.077	456.000	3512976309.075	770.785	279.128	1049.913	0.266	-0.949	-0.478
457.000	22.757	457.000	3512976310.569	753.335	152.341	905.677	0.168	-0.949	-0.478
458.000	22.757	458.000	3512976312.062	749.828	184.704	934.532	0.198	-0.949	0.337
459.000	22.727	459.000	3512976313.576	693.973	403.448	1097.421	0.368	-0.949	0.337
460.000	22.727	460.000	3512976315.077	901.054	231.275	1132.329	0.204	0.275	0.337
461.000	22.628	461.000	3512976316.577	712.532	236.504	949.036	0.249	0.275	0.337
462.000	22.628	462.000	3512976318.076	856.921	166.944	1023.865	0.163	0.275	-1.528
463.000	20.639	463.000	3512976319.578	986.747	44.400	1031.147	0.043	0.275	-1.528
464.000	20.639	464.000	3512976321.076	709.557	333.790	1043.347	0.320	-0.806	-1.528
465.000	19.399	465.000	3512976322.573	868.065	229.696	1097.761	0.209	-0.806	-1.528
466.000	19.399	466.000	3512976324.076	675.991	247.358	923.348	0.268	-0.806	2.589
467.000	21.633	467.000	3512976325.574	729.182	350.168	1079.350	0.324	-0.806	2.589
468.000	21.633	468.000	3512976327.073	1107.204	18.155	1125.358	0.016	0.548	2.589
469.000	21.753	469.000	3512976328.575	716.350	183.619	899.969	0.204	0.548	2.589
470.000	21.753	470.000	3512976330.073	833.566	174.245	1007.812	0.173	0.548	-2.883
471.000	18.353	471.000	3512976331.573	867.843	177.501	1045.345	0.170	0.548	-2.883
472.000	18.353	472.000	3512976333.074	775.846	341.979	1117.825	0.306	-0.291	-2.883
473.000	17.598	473.000	3512976334.576	773.449	265.216	1038.665	0.255	-0.291	-2.883
474.000	17.598	474.000	3512976336.077	805.816	266.894	1072.710	0.249	-0.291	1.273
475.000	18.392	475.000	3512976337.574	842.224	237.590	1079.814	0.220	-0.291	1.273
476.000	18.392	476.000	3512976339.074	713.331	260.283	973.614	0.267	-0.061	1.273
477.000	17.840	477.000	3512976340.578	852.658	273.208	1125.867	0.243	-0.061	1.273
478.000	17.840	478.000	3512976342.063	767.410	262.256	1029.667	0.255	-0.061	0.442
479.000	17.801	479.000	3512976343.576	878.277	230.584	1108.861	0.208	-0.061	0.442
480.000	17.801	480.000	3512976345.075	826.773	140.797	967.571	0.146	0.113	0.442
481.000	17.405	481.000	3512976346.573	779.798	414.894	1194.692	0.347	0.113	0.442
482.000	17.405	482.000	3512976348.076	853.857	193.880	1047.738	0.185	0.113	-0.584
483.000	16.287	483.000	3512976349.574	842.269	268.571	1110.840	0.242	0.113	-0.584
484.000	16.287	484.000	3512976351.076	930.714	261.368	1192.082	0.219	-1.517	-0.584
485.000	14.159	485.000	3512976352.575	953.624	242.523	1196.147	0.203	-1.517	-0.584
486.000	14.159	486.000	3512976354.075	672.749	395.259	1068.008	0.370	-1.517	-0.211
487.000	13.377	487.000	3512976355.578	794.095	265.118	1059.212	0.250	-1.517	-0.211
488.000	13.377	488.000	3512976357.074	887.290	355.003	1242.293	0.286	1.565	-0.211
489.000	14.379	489.000	3512976358.574	850.572	406.310	1256.881	0.323	1.565	-0.211
490.000	14.379	490.000	3512976360.064	892.885	65.317	958.202	0.068	1.565	0.332
491.000	14.127	491.000	3512976361.578	926.274	240.451	1166.725	0.206	1.565	0.332
492.000	14.127	492.000	3512976363.077	929.559	164.872	1094.431	0.151	-2.385	0.332
493.000	11.031	493.000	3512976364.574	995.893	122.643	1118.536	0.110	-2.385	0.332
494.000	11.031	494.000	3512976366.074	817.360	386.576	1203.937	0.321	-2.385	-0.518
495.000	9.943	495.000	3512976367.577	815.584	214.403	1029.987	0.208	-2.385	-0.518
496.000	9.943	496.000	3512976369.077	995.094	267.979	1263.073	0.212	1.977	-0.518
497.000	11.382	497.000	3512976370.574	832.101	286.627	1118.728	0.256	1.977	-0.518
498.000	11.382	498.000	3512976372.064	1022.755	300.046	1322.800	0.227	1.977	0.037
499.000	10.792	499.000	3512976373.578	773.360	259.790	1033.149	0.251	1.977	0.037
500.000	10.792	500.000	3512976375.078	915.351	194.373	1109.725	0.175	-0.275	0.037
501.000	9.892	501.000	3512976376.570	852.925	280.411	1133.336	0.247	-0.275	0.037
502.000	9.892	502.000	3512976378.065	910.512	176.120	1086.632	0.162	-0.275	-0.713
503.000	8.512	503.000	3512976379.577	920.013	225.848	1145.861	0.197	-0.275	-0.713
504.000	8.512	504.000	3512976381.073	833.300	406.112	1239.413	0.328	-0.798	-0.713
505.000	7.029	505.000	3512976382.574	989.988	117.709	1107.697	0.106	-0.798	-0.713
506.000	7.029	506.000	3512976384.063	894.750	267.979	1162.729	0.230	-0.798	1.221
507.000	7.672	507.000	3512976385.578	1058.586	216.080	1274.666	0.170	-0.798	1.221
508.000	7.672	508.000	3512976387.074	962.016	195.064	1157.080	0.169	1.161	1.221
509.000	8.241	509.000	3512976388.575	865.668	190.230	1055.897	0.180	1.161	1.221
510.000	8.241	510.000	3512976390.076	809.724	427.622	1237.345	0.346	1.161	-0.009
511.000	7.631	511.000	3512976391.578	1092.507	176.811	1269.318	0.139	1.161	-0.009
512.000	7.631	512.000	3512976393.078	821.312	290.870	1112.182	0.262	1.547	-0.009
513.000	8.589	513.000	3512976394.575	897.414	279.819	1177.233	0.238	1.547	-0.009
514.000	8.589	514.000	3512976396.074	1043.223	210.456	1253.680	0.168	1.547	1.143
515.000	9.178	515.000	3512976397.577	893.640	364.672	1258.312	0.290	1.547	1.143
516.000	9.178	516.000	3512976399.074	1085.359	304.979	1390.338	0.219	-0.653	1.143
517.000	7.985	517.000	3512976400.575	777.711	318.891	1096.602	0.291	-0.653	1.143
518.000	7.985	518.000	3512976402.075	811.588	430.384	1241.973	0.347	-0.653	-0.659
519.000	6.664	519.000	3512976403.575	935.598	326.488	1262.086	0.259	-0.653	-0.659
520.000	6.664	520.000	3512976405.075	1071.062	381.347	1452.409	0.263	0.521	-0.659
521.000	6.612	521.000	3512976406.575	878.632	271.827	1150.459	0.236	0.521	-0.659
522.000	6.612	522.000	3512976408.065	1176.646	232.952	1409.598	0.165	0.521	0.036
523.000	6.080	523.000	3512976409.574	1000.510	310.998	1311.508	0.237	0.521	0.036
524.000	6.080	524.000	3512976411.078	1049.262	168.326	1217.587	0.138	-0.664	0.036
525.000	4.886	525.000	3512976412.578	907.759	279.030	1186.788	0.235	-0.664	0.036
526.000	4.886	526.000	3512976414.074	966.589	229.499	1196.088	0.192	-0.664	-0.925
527.000	3.352	527.000	3512976415.576	1117.016	106.264	1223.280	0.087	-0.664	-0.925
528.000	3.352	528.000	3512976417.075	882.362	396.443	1278.805	0.310	-0.404	-0.925
529.000	2.383	529.000	3512976418.574	914.197	175.035	1089.232	0.161	-0.404	-0.925
530.000	2.383	530.000	3512976420.077	913.842	272.024	1185.866	0.229	-0.404	2.086
531.000	3.995	531.000	3512976421.575	920.724	427.128	1347.852	0.317	-0.404	2.086
532.000	3.995	532.000	3512976423.075	1063.736	152.637	1216.374	0.125	0.642	2.086
533.000	4.089	533.000	3512976424.578	922.766	430.779	1353.545	0.318	0.642	2.086
534.000	4.089	534.000	3512976426.077	1012.809	347.998	1360.807	0.256	0.642	-1.790
535.000	1.752	535.000	3512976427.577	996.204	353.819	1350.023	0.262	0.642	-1.790
536.000	1.752	536.000	3512976429.075	1097.658	389.734	1487.392	0.262	-0.585	-1.790
537.000	0.626	537.000	3512976430.576	1086.691	224.763	1311.454	0.171	-0.585	-1.790
538.000	0.626	538.000	3512976432.065	1082.828	230.091	1312.919	0.175	-0.585	-0.001
539.000	0.052	539.000	3512976433.575	1258.208	268.275	1526.483	0.176	-0.585	-0.001
540.000	0.052	540.000	3512976435.075	1078.610	202.267	1280.877	0.158	0.036	-0.001
541.000	-0.474	541.000	3512976436.575	1082.296	228.512	1310.808	0.174	0.036	-0.001
542.000	-0.474	542.000	3512976438.065	910.645	396.739	1307.384	0.303	0.036	-0.167
543.000	-1.156	543.000	3512976439.577	1057.831	258.014	1315.844	0.196	0.036	-0.167
544.000	-1.156	544.000	3512976441.078	903.141	349.675	1252.816	0.279	1.207	-0.167
545.000	-0.420	545.000	3512976442.575	879.165	254.363	1133.528	0.224	1.207	-0.167
546.000	-0.420	546.000	3512976444.076	987.901	294.816	1282.717	0.230	1.207	0.776
547.000	-0.252	547.000	3512976445.577	1166.389	233.347	1399.736	0.167	1.207	0.776
548.000	-0.252	548.000	3512976447.076	987.013	381.446	1368.459	0.279	0.051	0.776
549.000	-0.699	549.000	3512976448.578	938.528	252.488	1191.016	0.212	0.051	0.776
550.000	-0.699	550.000	3512976450.077	1032.523	159.248	1191.771	0.134	0.051	1.048
551.000	-0.076	551.000	3512976451.575	904.162	427.819	1331.982	0.321	0.051	1.048
552.000	-0.076	552.000	3512976453.078	1062.227	306.459	1368.686	0.224	-0.733	1.048
553.000	-1.332	553.000	3512976454.574	908.114	379.571	1287.685	0.295	-0.733	1.048
554.000	-1.332	554.000	3512976456.066	1129.182	213.318	1342.499	0.159	-0.733	-0.910
555.000	-2.771	555.000	3512976457.577	1030.259	271.728	1301.987	0.209	-0.733	-0.910
556.000	-2.771	556.000	3512976459.078	1055.212	373.454	1428.665	0.261	-1.270	-0.910
557.000	-4.628	557.000	3512976460.574	1187.302	167.043	1354.344	0.123	-1.270	-0.910
558.000	-4.628	558.000	3512976462.065	897.103	384.504	1281.607	0.300	-1.270	0.493
559.000	-4.665	559.000	3512976463.577	974.004	369.112	1343.116	0.275	-1.270	0.493
560.000	-4.665	560.000	3512976465.078	1138.772	339.216	1477.988	0.230	1.652	0.493
561.000	-3.528	561.000	3512976466.575	961.172	266.499	1227.671	0.217	1.652	0.493
562.000	-3.528	562.000	3512976468.065	1072.661	210.555	1283.215	0.164	1.652	-0.424
563.000	-4.475	563.000	3512976469.575	1037.274	315.043	1352.317	0.233	1.652	-0.424
564.000	-4.475	564.000	3512976471.076	1128.294	302.808	1431.102	0.212	-0.495	-0.424
565.000	-5.434	565.000	3512976472.576	960.684	263.440	1224.124	0.215	-0.495	-0.424
566.000	-5.434	566.000	3512976474.066	1036.563	273.603	1310.166	0.209	-0.495	-0.200
567.000	-6.157	567.000	3512976475.575	1183.927	254.758	1438.685	0.177	-0.495	-0.200
568.000	-6.157	568.000	3512976477.079	1103.163	287.120	1390.284	0.207	-0.060	-0.200
569.000	-6.754	569.000	3512976478.577	956.199	280.115	1236.314	0.227	-0.060	-0.200
570.000	-6.754	570.000	3512976480.075	849.062	320.766	1169.828	0.274	-0.060	0.275
571.000	-7.002	571.000	3512976481.577	1066.667	179.672	1246.339	0.144	-0.060	0.275
572.000	-7.002	572.000	3512976483.076	1064.757	161.715	1226.472	0.132	0.445	0.275
573.000	-6.951	573.000	3512976484.577	954.468	224.664	1179.132	0.191	0.445	0.275
574.000	-6.951	574.000	3512976486.065	1091.753	225.454	1317.206	0.171	0.445	-0.115
575.000	-7.567	575.000	3512976487.578	1032.523	212.528	1245.051	0.171	0.445	-0.115
576.000	-7.567	576.000	3512976489.075	1110.090	348.491	1458.581	0.239	-0.181	-0.115
577.000	-8.234	577.000	3512976490.575	788.456	421.504	1209.961	0.348	-0.181	-0.115
578.000	-8.234	578.000	3512976492.068	1103.829	171.582	1275.411	0.135	-0.181	0.638
579.000	-8.063	579.000	3512976493.579	776.246	445.382	1221.628	0.365	-0.181	0.638
580.000	-8.063	580.000	3512976495.076	1027.994	52.885	1080.880	0.049	-1.999	0.638
581.000	-10.633	581.000	3512976496.581	1152.048	71.731	1223.779	0.059	-1.999	0.638
582.000	-10.633	582.000	3512976498.068	791.164	471.134	1262.298	0.373	-1.999	-2.951
583.000	-14.155	583.000	3512976499.579	1264.602	114.059	1378.661	0.083	-1.999	-2.951
584.000	-14.155	584.000	3512976501.074	778.288	511.982	1290.270	0.397	2.942	-2.951
585.000	-11.594	585.000	3512976502.574	884.138	320.075	1204.213	0.266	2.942	-2.951
586.000	-11.594	586.000	3512976504.075	973.959	141.883	1115.842	0.127	2.942	2.937
587.000	-9.137	587.000	3512976505.574	839.605	457.320	1296.925	0.353	2.942	2.937
588.000	-9.137	588.000	3512976507.074	1037.496	262.158	1299.653	0.202	-1.296	2.937
589.000	-10.922	589.000	3512976508.575	961.705	186.875	1148.580	0.163	-1.296	2.937
590.000	-10.922	590.000	3512976510.067	1079.765	267.190	1346.954	0.198	-1.296	-1.411
591.000	-12.878	591.000	3512976511.575	1047.974	189.342	1237.316	0.153	-1.296	-1.411
592.000	-12.878	592.000	3512976513.079	1014.186	141.685	1155.871	0.123	0.333	-1.411
593.000	-13.088	593.000	3512976514.581	880.187	236.702	1116.888	0.212	0.333	-1.411
594.000	-13.088	594.000	3512976516.069	889.644	168.029	1057.673	0.159	0.333	-0.285
595.000	-13.987	595.000	3512976517.579	1058.053	293.534	1351.587	0.217	0.333	-0.285
596.000	-13.987	596.000	3512976519.075	880.986	305.176	1186.162	0.257	-0.496	-0.285
597.000	-15.016	597.000	3512976520.578	952.647	241.832	1194.480	0.202	-0.496	-0.285
598.000	-15.016	598.000	3512976522.075	912.909	209.568	1122.477	0.187	-0.496	0.375
599.000	-15.207	599.000	3512976523.578	981.197	177.699	1158.895	0.153	-0.496	0.375
600.000	-15.207	600.000	3512976525.078	952.292	311.787	1264.079	0.247	-0.147	0.375
601.000	-15.920	601.000	3512976526.578	1011.255	175.429	1186.685	0.148	-0.147	0.375
602.000	-15.920	602.000	3512976528.069	812.920	244.398	1057.318	0.231	-0.147	0.873
603.000	-15.567	603.000	3512976529.575	900.433	202.267	1102.700	0.183	-0.147	0.873
604.000	-15.567	604.000	3512976531.076	907.404	233.939	1141.343	0.205	0.779	0.873
605.000	-15.282	605.000	3512976532.576	847.419	233.347	1080.766	0.216	0.779	0.873
606.000	-15.282	606.000	3512976534.072	849.817	205.918	1055.734	0.195	0.779	0.201
607.000	-15.540	607.000	3512976535.575	687.313	335.763	1023.076	0.328	0.779	0.201
608.000	-15.540	608.000	3512976537.079	1028.127	134.483	1162.610	0.116	-0.195	0.201
609.000	-16.217	609.000	3512976538.578	781.307	294.323	1075.630	0.274	-0.195	0.201
610.000	-16.217	610.000	3512976540.078	919.436	159.544	1078.980	0.148	-0.195	-1.987
611.000	-18.860	611.000	3512976541.575	1008.813	185.198	1194.011	0.155	-0.195	-1.987
612.000	-18.860	612.000	3512976543.078	631.457	452.683	1084.141	0.418	-1.176	-1.987
613.000	-20.604	613.000	3512976544.579	966.234	16.181	982.415	0.016	-1.176	-1.987
614.000	-20.604	614.000	3512976546.079	832.146	227.032	1059.178	0.214	-1.176	2.454
615.000	-18.603	615.000	3512976547.579	767.499	244.496	1011.995	0.242	-1.176	2.454
616.000	-18.603	616.000	3512976549.081	1005.839	103.699	1109.537	0.093	1.850	2.454
617.000	-17.201	617.000	3512976550.579	832.634	151.552	984.186	0.154	1.850	2.454
